Czas[s]	Temperatura[K]
7,5730	295,0116
8,6130	295,0121
9,6480	295,0095
10,6820	295,0036
11,7160	295,0053
12,7500	295,0009
13,7840	294,9980
14,8180	294,9967
15,8510	294,9868
16,8860	294,9712
17,9190	294,9604
18,9530	294,9568
19,9870	294,9522
21,0210	294,9589
22,0550	294,9650
23,0900	294,9755
24,1250	294,9957
25,1600	295,0216
26,1950	295,0544
27,2300	295,0903
28,2640	295,1340
29,2980	295,1818
30,3320	295,2309
31,3660	295,2864
32,4000	295,3418
33,4330	295,4018
34,4670	295,4612
35,5010	295,5227
36,5350	295,5909
37,5690	295,6533
38,6030	295,7237
39,6370	295,7867
40,6720	295,8545
41,7070	295,9227
42,7420	295,9914
43,7770	296,0611
44,8120	296,1297
45,8460	296,2000
46,8800	296,2704
47,9140	296,3378
48,9480	296,4077
49,9820	296,4769
51,0150	296,5420
52,0490	296,6126
53,0830	296,6825
54,1170	296,7466
55,1510	296,8151
56,1850	296,8808
57,2190	296,9464
58,2540	297,0129
59,2890	297,0784
60,3240	297,1432
61,3590	297,2057
62,3940	297,2679
63,4280	297,3334
64,4620	297,3948
65,4960	297,4575
66,5300	297,5183
67,5640	297,5795
68,5980	297,6379
69,6310	297,7000
70,6650	297,7569
71,6990	297,8154
72,7330	297,8761
73,7670	297,9313
74,8010	297,9877
75,8360	298,0436
76,8710	298,0995
77,9060	298,1545
78,9410	298,2075
79,9750	298,2634
81,0090	298,3157
82,0430	298,3685
83,0770	298,4233
84,1110	298,4731
85,1450	298,5215
86,1780	298,5758
87,2120	298,6239
88,2460	298,6711
89,2800	298,7234
90,3140	298,7710
91,3480	298,8165
92,3820	298,8657
93,4170	298,9113
94,4520	298,9582
95,4870	299,0041
96,5220	299,0487
97,5560	299,0938
98,5900	299,1350
99,6240	299,1838
100,6580	299,2266
101,6920	299,2704
102,7260	299,3098
103,7590	299,3524
104,7940	299,3949
105,8270	299,4373
106,8610	299,4780
107,8950	299,5161
108,9290	299,5565
109,9630	299,5968
110,9980	299,6370
112,0330	299,6731
113,0680	299,7105
114,1030	299,7513
115,1370	299,7875
116,1710	299,8254
117,2050	299,8589
118,2390	299,8968
119,2730	299,9332
120,3070	299,9673
121,3400	300,0047
122,3740	300,0389
123,4080	300,0741
124,4420	300,1065
125,4760	300,1425
126,5100	300,1757
127,5440	300,2091
128,5790	300,2422
129,6140	300,2748
130,6490	300,3078
131,6840	300,3383
132,7190	300,3707
133,7530	300,4037
134,7870	300,4325
135,8210	300,4646
136,8550	300,4961
137,8890	300,5273
138,9220	300,5543
139,9560	300,5852
140,9900	300,6153
142,0240	300,6425
143,0580	300,6724
144,0920	300,7031
145,1260	300,7292
146,1610	300,7586
147,1960	300,7873
148,2310	300,8141
149,2660	300,8422
150,3000	300,8686
151,3340	300,8972
152,3680	300,9242
153,4020	300,9492
154,4360	300,9775
155,4700	301,0023
156,5030	301,0278
157,5370	301,0559
158,5710	301,0816
159,6050	301,1058
160,6390	301,1316
161,6730	301,1578
162,7070	301,1825
163,7420	301,2069
164,7770	301,2333
165,8120	301,2572
166,8470	301,2797
167,8810	301,3076
168,9150	301,3275
169,9490	301,3529
170,9830	301,3752
172,0170	301,3997
173,0510	301,4241
174,0840	301,4473
175,1180	301,4714
176,1520	301,4893
177,1860	301,5119
178,2200	301,5365
179,2540	301,5591
180,2880	301,5824
181,3230	301,6043
182,3580	301,6252
183,3930	301,6479
184,4280	301,6700
185,4620	301,6907
186,4960	301,7138
187,5300	301,7353
188,5640	301,7547
189,5980	301,7761
190,6310	301,7984
191,6650	301,8173
192,6990	301,8378
193,7330	301,8585
194,7670	301,8772
195,8010	301,8974
196,8350	301,9192
197,8690	301,9416
198,9040	301,9593
199,9390	301,9789
200,9740	302,0008
202,0090	302,0187
203,0430	302,0404
204,0770	302,0564
205,1110	302,0787
206,1450	302,0961
207,1790	302,1178
208,2120	302,1355
209,2460	302,1544
210,2800	302,1742
211,3140	302,1909
212,3480	302,2114
213,3820	302,2307
214,4160	302,2459
215,4500	302,2656
216,4850	302,2809
217,5200	302,3001
218,5550	302,3204
219,5900	302,3399
220,6240	302,3565
221,6580	302,3738
222,6920	302,3916
223,7260	302,4087
224,7600	302,4301
225,7940	302,4457
226,8280	302,4616
227,8610	302,4803
228,8950	302,4961
229,9290	302,5173
230,9630	302,5334
231,9980	302,5503
233,0320	302,5662
234,0670	302,5838
235,1020	302,6025
236,1370	302,6187
237,1720	302,6325
238,2060	302,6496
239,2400	302,6674
240,2740	302,6848
241,3080	302,6999
242,3420	302,7180
243,3750	302,7348
244,4090	302,7498
245,4430	302,7675
246,4770	302,7830
247,5110	302,7997
248,5450	302,8121
249,5790	302,8308
250,6140	302,8478
251,6490	302,8625
252,6840	302,8797
253,7190	302,8936
254,7540	302,9093
255,7880	302,9249
256,8220	302,9410
257,8560	302,9566
258,8900	302,9708
259,9240	302,9869
260,9570	303,0014
261,9910	303,0169
263,0250	303,0309
264,0590	303,0470
265,0930	303,0632
266,1270	303,0791
267,1610	303,0919
268,1960	303,1080
269,2310	303,1220
270,2660	303,1359
271,3010	303,1505
272,3360	303,1651
273,3700	303,1791
274,4040	303,1945
275,4380	303,2085
276,4720	303,2258
277,5060	303,2391
278,5390	303,2530
279,5730	303,2676
280,6070	303,2820
281,6410	303,2976
282,6750	303,3069
283,7090	303,3257
284,7430	303,3405
285,7780	303,3507
286,8130	303,3670
287,8480	303,3790
288,8830	303,3945
289,9180	303,4072
290,9520	303,4207
291,9860	303,4353
293,0200	303,4476
294,0540	303,4623
295,0880	303,4763
296,1210	303,4878
297,1550	303,5030
298,1890	303,5180
299,2230	303,5301
300,2570	303,5424
301,2910	303,5557
302,3250	303,5692
303,3600	303,5804
304,3950	303,5929
305,4300	303,6089
306,4650	303,6211
307,4990	303,6344
308,5330	303,6488
309,5670	303,6606
310,6010	303,6719
311,6350	303,6850
312,6690	303,6992
313,7020	303,7107
314,7360	303,7210
315,7700	303,7377
316,8040	303,7519
317,8380	303,7655
318,8720	303,7728
319,9060	303,7891
320,9410	303,7998
321,9760	303,8130
323,0110	303,8239
324,0460	303,8357
325,0800	303,8499
326,1140	303,8632
327,1480	303,8764
328,1820	303,8842
329,2160	303,8980
330,2500	303,9099
331,2830	303,9200
332,3170	303,9327
333,3510	303,9460
334,3850	303,9591
335,4190	303,9701
336,4530	303,9834
337,4870	303,9930
338,5220	304,0043
339,5570	304,0167
340,5920	304,0287
341,6270	304,0419
342,6610	304,0498
343,6950	304,0650
344,7290	304,0734
345,7630	304,0874
346,7970	304,0984
347,8310	304,1122
348,8640	304,1235
349,8980	304,1331
350,9320	304,1449
351,9660	304,1555
353,0000	304,1662
354,0340	304,1799
355,0680	304,1898
356,1030	304,2016
357,1380	304,2141
358,1730	304,2255
359,2080	304,2342
360,2420	304,2456
361,2760	304,2587
362,3100	304,2657
363,3440	304,2767
364,3780	304,2887
365,4120	304,2998
366,4450	304,3092
367,4790	304,3210
368,5130	304,3314
369,5470	304,3395
370,5810	304,3534
371,6150	304,3632
372,6490	304,3740
373,6840	304,3845
374,7190	304,3938
375,7540	304,4024
376,7890	304,4120
377,8230	304,4244
378,8570	304,4357
379,8910	304,4461
380,9250	304,4531
381,9590	304,4657
382,9930	304,4748
384,0260	304,4834
385,0600	304,4975
386,0940	304,5051
387,1280	304,5156
388,1620	304,5243
389,1960	304,5357
390,2300	304,5460
391,2650	304,5563
392,3000	304,5641
393,3350	304,5725
394,3700	304,5853
395,4040	304,5945
396,4380	304,6030
397,4720	304,6154
398,5060	304,6233
399,5400	304,6328
400,5740	304,6403
401,6070	304,6545
402,6410	304,6610
403,6750	304,6722
404,7090	304,6820
405,7430	304,6883
406,7770	304,6987
407,8110	304,7087
408,8460	304,7167
409,8810	304,7291
410,9160	304,7357
411,9510	304,7454
412,9850	304,7540
414,0190	304,7611
415,0530	304,7724
416,0870	304,7798
417,1210	304,7927
418,1550	304,8002
419,1880	304,8080
420,2220	304,8174
421,2560	304,8274
422,2900	304,8345
423,3240	304,8438
424,3580	304,8545
425,3920	304,8642
426,4270	304,8689
427,4620	304,8792
428,4970	304,8901
429,5320	304,8977
430,5660	304,9055
431,6000	304,9154
432,6340	304,9218
433,6680	304,9319
434,7020	304,9399
435,7360	304,9470
436,7690	304,9572
437,8030	304,9625
438,8370	304,9746
439,8710	304,9830
440,9050	304,9869
441,9390	304,9967
442,9730	305,0035
444,0080	305,0134
445,0430	305,0222
446,0780	305,0327
447,1130	305,0399
448,1470	305,0476
449,1810	305,0562
450,2150	305,0650
451,2490	305,0734
452,2830	305,0814
453,3170	305,0862
454,3500	305,0983
455,3840	305,1040
456,4180	305,1112
457,4520	305,1199
458,4860	305,1277
459,5200	305,1334
460,5540	305,1453
461,5880	305,1504
462,6230	305,1587
463,6580	305,1667
464,6930	305,1758
465,7270	305,1804
466,7610	305,1905
467,7950	305,1970
468,8290	305,2034
469,8630	305,2115
470,8960	305,2200
471,9300	305,2283
472,9640	305,2342
473,9980	305,2432
475,0320	305,2506
476,0660	305,2571
477,1000	305,2644
478,1350	305,2740
479,1700	305,2803
480,2050	305,2849
481,2400	305,2919
482,2750	305,3036
483,3090	305,3082
484,3430	305,3159
485,3770	305,3235
486,4110	305,3284
487,4450	305,3364
488,4780	305,3437
489,5120	305,3512
490,5460	305,3558
491,5800	305,3663
492,6140	305,3738
493,6480	305,3816
494,6820	305,3834
495,7170	305,3915
496,7520	305,3997
497,7870	305,4047
498,8220	305,4133
499,8570	305,4214
500,8910	305,4273
501,9250	305,4341
502,9590	305,4399
503,9930	305,4465
505,0270	305,4575
506,0600	305,4607
507,0940	305,4684
508,1280	305,4724
509,1620	305,4811
510,1960	305,4877
511,2300	305,4926
512,2640	305,5015
513,2990	305,5062
514,3340	305,5110
515,3690	305,5194
516,4040	305,5245
517,4390	305,5315
518,4730	305,5392
519,5070	305,5467
520,5410	305,5491
521,5750	305,5575
522,6090	305,5649
523,6420	305,5704
524,6760	305,5758
525,7100	305,5818
526,7440	305,5880
527,7780	305,5957
528,8120	305,6033
529,8460	305,6067
530,8810	305,6138
531,9160	305,6197
532,9510	305,6268
533,9860	305,6323
535,0200	305,6379
536,0540	305,6450
537,0880	305,6486
538,1230	305,6576
539,1570	305,6637
540,1910	305,6685
541,2240	305,6750
542,2580	305,6789
543,2920	305,6848
544,3260	305,6931
545,3600	305,6973
546,3940	305,7032
547,4280	305,7084
548,4630	305,7139
549,4980	305,7191
550,5330	305,7249
551,5680	305,7313
552,6020	305,7340
553,6360	305,7413
554,6700	305,7456
555,7040	305,7536
556,7380	305,7593
557,7720	305,7654
558,8050	305,7722
559,8390	305,7731
560,8730	305,7842
561,9070	305,7880
562,9410	305,7934
563,9750	305,7978
565,0090	305,8014
566,0430	305,8081
567,0780	305,8160
568,1130	305,8185
569,1480	305,8250
570,1820	305,8296
571,2160	305,8367
572,2500	305,8393
573,2840	305,8473
574,3180	305,8497
575,3520	305,8571
576,3850	305,8614
577,4190	305,8689
578,4530	305,8715
579,4870	305,8765
580,5210	305,8826
581,5550	305,8880
582,5900	305,8909
583,6250	305,8952
584,6600	305,9013
585,6950	305,9074
586,7300	305,9118
587,7640	305,9178
588,7980	305,9223
589,8320	305,9263
590,8660	305,9326
591,9000	305,9350
592,9340	305,9396
593,9670	305,9466
595,0010	305,9514
596,0350	305,9565
597,0690	305,9618
598,1030	305,9652
599,1380	305,9689
600,1720	305,9730
601,2070	305,9790
602,2420	305,9846
603,2770	305,9866
604,3120	305,9886
605,3460	305,9967
606,3800	305,9998
607,4140	306,0055
608,4480	306,0126
609,4820	306,0155
610,5160	306,0199
611,5490	306,0247
612,5830	306,0272
613,6170	306,0355
614,6510	306,0384
615,6850	306,0427
616,7190	306,0479
617,7530	306,0512
618,7880	306,0567
619,8230	306,0607
620,8580	306,0639
621,8930	306,0721
622,9270	306,0741
623,9610	306,0764
624,9950	306,0834
626,0290	306,0846
627,0630	306,0904
628,0970	306,0940
629,1300	306,1005
630,1640	306,1043
631,1980	306,1081
632,2320	306,1148
633,2660	306,1176
634,3000	306,1222
635,3340	306,1268
636,3690	306,1296
637,4040	306,1337
638,4390	306,1374
639,4740	306,1418
640,5080	306,1461
641,5420	306,1512
642,5760	306,1555
643,6100	306,1613
644,6440	306,1626
645,6780	306,1678
646,7110	306,1711
647,7450	306,1756
648,7790	306,1779
649,8130	306,1820
650,8470	306,1882
651,8810	306,1918
652,9150	306,1935
653,9500	306,1986
654,9850	306,2045
656,0200	306,2062
657,0550	306,2095
658,0890	306,2139
659,1230	306,2163
660,1570	306,2205
661,1910	306,2258
662,2250	306,2292
663,2580	306,2333
664,2920	306,2393
665,3260	306,2407
666,3600	306,2461
667,3940	306,2484
668,4280	306,2520
669,4620	306,2559
670,4960	306,2618
671,5310	306,2630
672,5660	306,2663
673,6010	306,2707
674,6360	306,2732
675,6700	306,2774
676,7040	306,2819
677,7380	306,2845
678,7720	306,2891
679,8060	306,2930
680,8400	306,2954
681,8730	306,3004
682,9070	306,3033
683,9410	306,3071
684,9750	306,3116
686,0090	306,3144
687,0430	306,3182
688,0770	306,3189
689,1120	306,3233
690,1470	306,3268
691,1820	306,3311
692,2170	306,3326
693,2510	306,3349
694,2850	306,3395
695,3190	306,3425
696,3530	306,3464
697,3870	306,3495
698,4200	306,3514
699,4540	306,3564
700,4890	306,3588
701,5220	306,3638
702,5560	306,3641
703,5900	306,3691
704,6240	306,3701
705,6590	306,3758
706,6940	306,3780
707,7290	306,3822
708,7640	306,3854
709,7990	306,3886
710,8330	306,3927
711,8670	306,3963
712,9010	306,3971
713,9350	306,4012
714,9690	306,4046
716,0020	306,4066
717,0360	306,4113
718,0700	306,4146
719,1040	306,4184
720,1380	306,4205
721,1720	306,4252
722,2060	306,4279
723,2410	306,4255
724,2760	306,4316
725,3110	306,4347
726,3460	306,4368
727,3810	306,4414
728,4150	306,4432
729,4490	306,4467
730,4830	306,4522
731,5170	306,4521
732,5510	306,4582
733,5840	306,4594
734,6180	306,4610
735,6520	306,4647
736,6860	306,4671
737,7200	306,4707
738,7540	306,4727
739,7880	306,4748
740,8230	306,4773
741,8580	306,4830
742,8930	306,4863
743,9280	306,4879
744,9630	306,4928
745,9970	306,4943
747,0310	306,4948
748,0650	306,5011
749,0990	306,5031
750,1330	306,5068
751,1660	306,5073
752,2000	306,5095
753,2340	306,5140
754,2680	306,5142
755,3020	306,5194
756,3360	306,5207
757,3700	306,5250
758,4050	306,5268
759,4400	306,5306
760,4750	306,5313
761,5100	306,5332
762,5450	306,5387
763,5790	306,5385
764,6130	306,5433
765,6470	306,5450
766,6810	306,5475
767,7150	306,5521
768,7490	306,5517
769,7820	306,5568
770,8160	306,5583
771,8500	306,5615
772,8840	306,5642
773,9180	306,5641
774,9520	306,5677
775,9870	306,5688
777,0220	306,5737
778,0570	306,5765
779,0920	306,5774
780,1260	306,5814
781,1600	306,5816
782,1940	306,5872
783,2280	306,5877
784,2620	306,5919
785,2960	306,5931
786,3290	306,5941
787,3630	306,5990
788,3970	306,5999
789,4310	306,6019
790,4650	306,6054
791,4990	306,6065
792,5330	306,6097
793,5680	306,6139
794,6030	306,6119
795,6380	306,6153
796,6730	306,6170
797,7070	306,6178
798,7410	306,6238
799,7750	306,6223
800,8090	306,6278
801,8430	306,6304
802,8770	306,6294
803,9110	306,6357
804,9440	306,6384
805,9780	306,6400
807,0120	306,6386
808,0460	306,6429
809,0800	306,6465
810,1140	306,6466
811,1490	306,6506
812,1840	306,6524
813,2190	306,6558
814,2540	306,6564
815,2880	306,6588
816,3220	306,6616
817,3560	306,6629
818,3900	306,6627
819,4240	306,6654
820,4580	306,6676
821,4910	306,6716
822,5250	306,6733
823,5590	306,6753
824,5930	306,6762
825,6270	306,6798
826,6610	306,6846
827,6950	306,6833
828,7300	306,6882
829,7650	306,6878
830,8000	306,6919
831,8350	306,6932
832,8690	306,6947
833,9030	306,6946
834,9370	306,6972
835,9710	306,6999
837,0050	306,7019
838,0390	306,7037
839,0720	306,7074
840,1060	306,7102
841,1400	306,7098
842,1740	306,7128
843,2080	306,7156
844,2420	306,7177
845,2760	306,7168
846,3110	306,7200
847,3460	306,7204
848,3810	306,7228
849,4160	306,7267
850,4500	306,7276
851,4840	306,7316
852,5180	306,7299
853,5520	306,7320
854,5860	306,7358
855,6200	306,7380
856,6530	306,7399
857,6870	306,7414
858,7210	306,7449
859,7550	306,7449
860,7890	306,7476
861,8230	306,7494
862,8570	306,7511
863,8920	306,7529
864,9270	306,7549
865,9620	306,7539
866,9970	306,7599
868,0310	306,7595
869,0650	306,7606
870,0990	306,7632
871,1330	306,7650
872,1670	306,7664
873,2010	306,7688
874,2340	306,7715
875,2680	306,7720
876,3020	306,7756
877,3360	306,7782
878,3700	306,7821
879,4040	306,7811
880,4380	306,7822
881,4730	306,7807
882,5080	306,7840
883,5430	306,7861
884,5780	306,7876
885,6120	306,7897
886,6460	306,7927
887,6800	306,7949
888,7140	306,7941
889,7480	306,7949
890,7820	306,7993
891,8150	306,8033
892,8490	306,8039
893,8830	306,8041
894,9170	306,8043
895,9510	306,8038
896,9850	306,8098
898,0190	306,8096
899,0540	306,8145
900,0890	306,8151
901,1240	306,8174
902,1590	306,8172
903,1930	306,8194
904,2270	306,8192
905,2610	306,8213
906,2950	306,8256
907,3290	306,8253
908,3630	306,8286
909,3960	306,8309
910,4300	306,8304
911,4640	306,8314
912,4980	306,8338
913,5320	306,8339
914,5660	306,8359
915,6000	306,8388
916,6350	306,8364
917,6700	306,8398
918,7050	306,8416
919,7400	306,8434
920,7740	306,8463
921,8080	306,8474
922,8420	306,8494
923,8760	306,8473
924,9100	306,8507
925,9440	306,8542
926,9770	306,8539
928,0110	306,8552
929,0450	306,8555
930,0790	306,8547
931,1130	306,8602
932,1470	306,8622
933,1820	306,8635
934,2170	306,8636
935,2520	306,8683
936,2870	306,8676
937,3220	306,8675
938,3560	306,8706
939,3900	306,8744
940,4240	306,8738
941,4580	306,8719
942,4920	306,8750
943,5260	306,8763
944,5600	306,8758
945,5930	306,8807
946,6270	306,8808
947,6610	306,8813
948,6950	306,8840
949,7290	306,8848
950,7640	306,8846
951,7990	306,8862
952,8340	306,8889
953,8690	306,8906
954,9040	306,8908
955,9380	306,8923
956,9720	306,8918
958,0060	306,8961
959,0400	306,8965
960,0740	306,8956
961,1080	306,8975
962,1410	306,8980
963,1750	306,8989
964,2090	306,9048
965,2430	306,9026
966,2770	306,9038
967,3110	306,9046
968,3460	306,9066
969,3810	306,9088
970,4160	306,9074
971,4510	306,9079
972,4850	306,9111
973,5190	306,9138
974,5530	306,9140
975,5870	306,9144
976,6210	306,9156
977,6550	306,9182
978,6880	306,9212
979,7220	306,9199
980,7560	306,9230
981,7900	306,9212
982,8240	306,9254
983,8580	306,9257
984,8920	306,9270
985,9270	306,9284
986,9620	306,9279
987,9970	306,9302
989,0320	306,9319
990,0660	306,9327
991,1000	306,9331
992,1340	306,9363
993,1680	306,9348
994,2020	306,9356
995,2360	306,9387
996,2690	306,9392
997,3030	306,9401
998,3370	306,9377
999,3710	306,9438
1000,4050	306,9447
1001,4390	306,9459
1002,4730	306,9471
1003,5080	306,9480
1004,5430	306,9485
1005,5780	306,9497
1006,6130	306,9506
1007,6470	306,9544
1008,6810	306,9526
1009,7150	306,9574
1010,7490	306,9568
1011,7830	306,9575
1012,8170	306,9590
1013,8500	306,9598
1014,8840	306,9588
1015,9180	306,9626
1016,9520	306,9641
1017,9860	306,9637
1019,0200	306,9645
1020,0540	306,9706
1021,0890	306,9663
1022,1240	306,9697
1023,1590	306,9698
1024,1940	306,9726
1025,2280	306,9712
1026,2620	306,9728
1027,2960	306,9752
1028,3300	306,9750
1029,3640	306,9765
1030,3980	306,9813
1031,4310	306,9797
1032,4650	306,9795
1033,4990	306,9798
1034,5330	306,9805
1035,5670	306,9832
1036,6010	306,9867
1037,6350	306,9836
1038,6700	306,9869
1039,7050	306,9862
1040,7400	306,9876
1041,7750	306,9908
1042,8090	306,9908
1043,8430	306,9913
1044,8770	306,9938
1045,9110	306,9944
1046,9450	306,9923
1047,9790	306,9934
1049,0120	306,9959
1050,0460	306,9989
1051,0810	306,9997
1052,1140	306,9993
1053,1480	307,0028
1054,1820	307,0035
1055,2160	307,0006
1056,2510	307,0037
1057,2860	307,0035
1058,3210	307,0056
1059,3560	307,0056
1060,3900	307,0062
1061,4240	307,0090
1062,4580	307,0086
1063,4920	307,0065
1064,5260	307,0114
1065,5600	307,0120
1066,5930	307,0113
1067,6270	307,0140
1068,6610	307,0137
1069,6950	307,0150
1070,7290	307,0162
1071,7630	307,0189
1072,7970	307,0180
1073,8320	307,0199
1074,8670	307,0198
1075,9020	307,0210
1076,9370	307,0214
1077,9710	307,0247
1079,0050	307,0229
1080,0390	307,0252
1081,0730	307,0281
1082,1070	307,0278
1083,1410	307,0294
1084,1740	307,0281
1085,2080	307,0314
1086,2420	307,0320
1087,2760	307,0324
1088,3100	307,0355
1089,3440	307,0351
1090,3780	307,0361
1091,4130	307,0355
1092,4480	307,0378
1093,4830	307,0366
1094,5180	307,0366
1095,5520	307,0399
1096,5860	307,0421
1097,6200	307,0416
1098,6540	307,0437
1099,6880	307,0431
1100,7220	307,0426
1101,7550	307,0434
1102,7890	307,0434
1103,8230	307,0471
1104,8570	307,0448
1105,8910	307,0468
1106,9250	307,0477
1107,9590	307,0499
1108,9940	307,0486
1110,0290	307,0503
1111,0640	307,0541
1112,0990	307,0493
1113,1330	307,0486
1114,1670	307,0531
1115,2010	307,0540
1116,2350	307,0538
1117,2690	307,0564
1118,3030	307,0561
1119,3360	307,0554
1120,3700	307,0566
1121,4040	307,0599
1122,4380	307,0585
1123,4720	307,0637
1124,5060	307,0614
1125,5410	307,0611
1126,5760	307,0623
1127,6110	307,0630
1128,6460	307,0633
1129,6810	307,0660
1130,7150	307,0647
1131,7490	307,0682
1132,7830	307,0679
1133,8170	307,0685
1134,8510	307,0689
1135,8840	307,0716
1136,9180	307,0708
1137,9520	307,0707
1138,9860	307,0720
1140,0200	307,0719
1141,0540	307,0735
1142,0880	307,0723
1143,1220	307,0730
1144,1570	307,0734
1145,1920	307,0741
1146,2270	307,0770
1147,2620	307,0779
1148,2960	307,0761
1149,3300	307,0792
1150,3640	307,0788
1151,3980	307,0799
1152,4320	307,0815
1153,4660	307,0810
1154,4990	307,0839
1155,5330	307,0851
1156,5670	307,0832
1157,6010	307,0840
1158,6350	307,0825
1159,6690	307,0835
1160,7040	307,0880
1161,7390	307,0857
1162,7740	307,0862
1163,8090	307,0876
1164,8440	307,0897
1165,8780	307,0901
1166,9120	307,0900
1167,9460	307,0928
1168,9800	307,0914
1170,0140	307,0936
1171,0470	307,0931
1172,0810	307,0945
1173,1150	307,0946
1174,1490	307,0955
1175,1830	307,0989
1176,2170	307,0987
1177,2510	307,0985
1178,2860	307,0991
1179,3210	307,1024
1180,3560	307,1017
1181,3910	307,1002
1182,4260	307,1007
1183,4600	307,1009
1184,4940	307,1039
1185,5280	307,1039
1186,5620	307,1059
1187,5960	307,1058
1188,6290	307,1051
1189,6630	307,1053
1190,6970	307,1075
1191,7310	307,1074
1192,7650	307,1091
1193,7990	307,1094
1194,8330	307,1094
1195,8680	307,1106
1196,9030	307,1120
1197,9380	307,1108
1198,9730	307,1125
1200,0080	307,1138
1201,0420	307,1140
1202,0760	307,1158
1203,1100	307,1146
1204,1440	307,1165
1205,1780	307,1181
1206,2120	307,1149
1207,2450	307,1170
1208,2790	307,1195
1209,3130	307,1195
1210,3470	307,1199
1211,3810	307,1201
1212,4150	307,1197
1213,4500	307,1210
1214,4850	307,1212
1215,5200	307,1220
1216,5550	307,1226
1217,5890	307,1249
1218,6230	307,1226
1219,6570	307,1257
1220,6910	307,1287
1221,7250	307,1268
1222,7590	307,1266
1223,7920	307,1254
1224,8260	307,1279
1225,8600	307,1299
1226,8940	307,1296
1227,9280	307,1303
1228,9620	307,1298
1229,9960	307,1314
1231,0310	307,1328
1232,0660	307,1347
1233,1010	307,1325
1234,1360	307,1337
1235,1700	307,1353
1236,2040	307,1330
1237,2380	307,1340
1238,2720	307,1345
1239,3060	307,1383
1240,3400	307,1359
1241,3730	307,1403
1242,4070	307,1381
1243,4410	307,1373
1244,4750	307,1390
1245,5090	307,1388
1246,5430	307,1387
1247,5770	307,1430
1248,6120	307,1410
1249,6470	307,1417
1250,6820	307,1447
1251,7170	307,1441
1252,7510	307,1424
1253,7850	307,1444
1254,8190	307,1462
1255,8530	307,1446
1256,8870	307,1451
1257,9210	307,1493
1258,9540	307,1502
1259,9880	307,1479
1261,0220	307,1483
1262,0560	307,1495
1263,0900	307,1506
1264,1240	307,1489
1265,1580	307,1503
1266,1930	307,1511
1267,2280	307,1542
1268,2630	307,1509
1269,2980	307,1549
1270,3320	307,1527
1271,3660	307,1556
1272,4000	307,1554
1273,4340	307,1559
1274,4680	307,1555
1275,5020	307,1572
1276,5350	307,1569
1277,5690	307,1578
1278,6030	307,1573
1279,6370	307,1590
1280,6710	307,1587
1281,7050	307,1588
1282,7390	307,1598
1283,7740	307,1621
1284,8090	307,1625
1285,8440	307,1623
1286,8790	307,1600
1287,9130	307,1643
1288,9470	307,1647
1289,9810	307,1650
1291,0150	307,1649
1292,0490	307,1656
1293,0830	307,1642
1294,1160	307,1660
1295,1500	307,1683
1296,1850	307,1679
1297,2180	307,1693
1298,2520	307,1681
1299,2860	307,1684
1300,3200	307,1687
1301,3550	307,1694
1302,3900	307,1671
1303,4250	307,1717
1304,4600	307,1709
1305,4940	307,1723
1306,5280	307,1727
1307,5620	307,1743
1308,5960	307,1749
1309,6300	307,1732
1310,6640	307,1737
1311,6970	307,1757
1312,7310	307,1751
1313,7650	307,1772
1314,7990	307,1749
1315,8330	307,1759
1316,8670	307,1776
1317,9010	307,1778
1318,9360	307,1778
1319,9710	307,1776
1321,0060	307,1791
1322,0410	307,1782
1323,0750	307,1811
1324,1090	307,1801
1325,1430	307,1817
1326,1770	307,1847
1327,2110	307,1824
1328,2450	307,1817
1329,2780	307,1833
1330,3120	307,1857
1331,3460	307,1838
1332,3800	307,1855
1333,4140	307,1865
1334,4480	307,1835
1335,4820	307,1852
1336,5170	307,1886
1337,5520	307,1861
1338,5870	307,1892
1339,6220	307,1889
1340,6560	307,1890
1341,6900	307,1897
1342,7240	307,1906
1343,7580	307,1890
1344,7920	307,1920
1345,8260	307,1911
1346,8590	307,1908
1347,8930	307,1931
1348,9270	307,1949
1349,9610	307,1922
1350,9950	307,1943
1352,0290	307,1935
1353,0630	307,1954
1354,0980	307,1957
1355,1330	307,1983
1356,1680	307,1992
1357,2030	307,1978
1358,2370	307,1979
1359,2710	307,1990
1360,3050	307,1970
1361,3390	307,1993
1362,3730	307,2020
1363,4070	307,2002
1364,4400	307,2027
1365,4740	307,2021
1366,5080	307,2020
1367,5420	307,2024
1368,5760	307,2008
1369,6100	307,2020
1370,6450	307,2030
1371,6800	307,2063
1372,7150	307,2037
1373,7500	307,2050
1374,7850	307,2050
1375,8190	307,2048
1376,8530	307,2062
1377,8870	307,2067
1378,9210	307,2079
1379,9550	307,2071
1380,9890	307,2082
1382,0220	307,2104
1383,0560	307,2096
1384,0900	307,2076
1385,1240	307,2091
1386,1580	307,2120
1387,1920	307,2113
1388,2270	307,2100
1389,2620	307,2140
1390,2970	307,2144
1391,3320	307,2137
1392,3670	307,2155
1393,4010	307,2133
1394,4350	307,2150
1395,4690	307,2151
1396,5030	307,2171
1397,5370	307,2162
1398,5700	307,2165
1399,6040	307,2194
1400,6380	307,2183
1401,6720	307,2195
1402,7060	307,2174
1403,7400	307,2190
1404,7740	307,2215
1405,8090	307,2233
1406,8440	307,2225
1407,8790	307,2228
1408,9140	307,2234
1409,9490	307,2233
1410,9830	307,2215
1412,0170	307,2219
1413,0510	307,2273
1414,0850	307,2234
1415,1190	307,2244
1416,1530	307,2244
1417,1860	307,2255
1418,2200	307,2246
1419,2540	307,2260
1420,2880	307,2271
1421,3220	307,2255
1422,3560	307,2279
1423,3910	307,2273
1424,4260	307,2283
1425,4610	307,2276
1426,4960	307,2303
1427,5310	307,2300
1428,5650	307,2322
1429,5990	307,2318
1430,6330	307,2312
1431,6670	307,2335
1432,7010	307,2320
1433,7340	307,2315
1434,7680	307,2303
1435,8020	307,2330
1436,8360	307,2329
1437,8700	307,2339
1438,9040	307,2343
1439,9380	307,2347
1440,9730	307,2348
1442,0080	307,2349
1443,0430	307,2364
1444,0780	307,2356
1445,1130	307,2364
1446,1470	307,2371
1447,1810	307,2355
1448,2150	307,2387
1449,2490	307,2385
1450,2830	307,2380
1451,3170	307,2369
1452,3500	307,2396
1453,3840	307,2389
1454,4180	307,2405
1455,4520	307,2403
1456,4860	307,2385
1457,5200	307,2402
1458,5550	307,2420
1459,5900	307,2407
1460,6250	307,2419
1461,6600	307,2428
1462,6940	307,2435
1463,7280	307,2446
1464,7620	307,2453
1465,7960	307,2429
1466,8300	307,2471
1467,8640	307,2463
1468,8970	307,2452
1469,9310	307,2466
1470,9650	307,2463
1471,9990	307,2455
1473,0330	307,2486
1474,0670	307,2479
1475,1010	307,2508
1476,1360	307,2489
1477,1710	307,2474
1478,2060	307,2498
1479,2410	307,2503
1480,2760	307,2492
1481,3100	307,2489
1482,3440	307,2515
1483,3780	307,2511
1484,4120	307,2501
1485,4460	307,2535
1486,4790	307,2533
1487,5130	307,2514
1488,5470	307,2535
1489,5810	307,2535
1490,6150	307,2535
1491,6490	307,2539
1492,6830	307,2536
1493,7180	307,2545
1494,7530	307,2565
1495,7880	307,2554
1496,8230	307,2552
1497,8570	307,2596
1498,8910	307,2567
1499,9250	307,2593
1500,9590	307,2584
1501,9930	307,2585
1503,0270	307,2581
1504,0600	307,2590
1505,0940	307,2571
1506,1280	307,2584
1507,1620	307,2595
1508,1960	307,2608
1509,2300	307,2626
1510,2640	307,2619
1511,2990	307,2619
1512,3340	307,2617
1513,3690	307,2654
1514,4040	307,2612
1515,4380	307,2629
1516,4720	307,2637
1517,5060	307,2661
1518,5400	307,2632
1519,5740	307,2640
1520,6080	307,2664
1521,6420	307,2681
1522,6750	307,2667
1523,7090	307,2670
1524,7430	307,2667
1525,7780	307,2668
1526,8120	307,2674
1527,8460	307,2666
1528,8810	307,2662
1529,9160	307,2689
1530,9510	307,2682
1531,9860	307,2693
1533,0200	307,2694
1534,0540	307,2696
1535,0880	307,2699
1536,1220	307,2713
1537,1560	307,2705
1538,1900	307,2707
1539,2230	307,2728
1540,2570	307,2700
1541,2910	307,2699
1542,3250	307,2740
1543,3590	307,2701
1544,3930	307,2733
1545,4280	307,2703
1546,4630	307,2724
1547,4980	307,2728
1548,5330	307,2728
1549,5680	307,2731
1550,6020	307,2757
1551,6360	307,2739
1552,6700	307,2739
1553,7040	307,2743
1554,7380	307,2747
1555,7720	307,2781
1556,8050	307,2774
1557,8390	307,2773
1558,8730	307,2780
1559,9070	307,2782
1560,9410	307,2785
1561,9750	307,2782
1563,0090	307,2785
1564,0440	307,2783
1565,0790	307,2790
1566,1140	307,2782
1567,1490	307,2793
1568,1830	307,2800
1569,2170	307,2802
1570,2510	307,2819
1571,2850	307,2801
1572,3190	307,2813
1573,3530	307,2809
1574,3860	307,2804
1575,4200	307,2799
1576,4540	307,2809
1577,4880	307,2825
1578,5220	307,2848
1579,5560	307,2830
1580,5910	307,2840
1581,6260	307,2847
1582,6610	307,2852
1583,6960	307,2848
1584,7310	307,2857
1585,7650	307,2877
1586,7990	307,2880
1587,8330	307,2864
1588,8670	307,2847
1589,9010	307,2875
1590,9350	307,2878
1591,9680	307,2874
1593,0020	307,2868
1594,0360	307,2889
1595,0700	307,2866
1596,1040	307,2896
1597,1380	307,2878
1598,1730	307,2904
1599,2080	307,2895
1600,2430	307,2903
1601,2780	307,2913
1602,3130	307,2904
1603,3470	307,2928
1604,3810	307,2911
1605,4150	307,2917
1606,4490	307,2919
1607,4830	307,2922
1608,5170	307,2926
1609,5500	307,2933
1610,5840	307,2951
1611,6180	307,2953
1612,6520	307,2937
1613,6860	307,2946
1614,7200	307,2951
1615,7540	307,2948
1616,7890	307,2952
