Czas[s]	Temperatura[K]
2,8850	297,6337
3,9270	297,6386
4,9610	297,6411
5,9950	297,6404
7,0290	297,6463
8,0630	297,6488
9,0970	297,6522
10,1320	297,6542
11,1670	297,6572
12,2020	297,6592
13,2370	297,6626
14,2720	297,6621
15,3060	297,6660
16,3400	297,6678
17,3740	297,6711
18,4080	297,6729
19,4420	297,6746
20,4750	297,6764
21,5090	297,6780
22,5430	297,6823
23,5770	297,6834
24,6110	297,6853
25,6450	297,6885
26,6790	297,6913
27,7130	297,6942
28,7480	297,6970
29,7830	297,6989
30,8180	297,6996
31,8530	297,7012
32,8870	297,7033
33,9210	297,7078
34,9550	297,7101
35,9890	297,7105
37,0230	297,7158
38,0560	297,7151
39,0900	297,7207
40,1240	297,7223
41,1580	297,7261
42,1920	297,7259
43,2260	297,7303
44,2600	297,7313
45,2950	297,7354
46,3300	297,7397
47,3650	297,7400
48,4000	297,7441
49,4350	297,7483
50,4690	297,7496
51,5030	297,7535
52,5370	297,7581
53,5710	297,7594
54,6050	297,7620
55,6380	297,7660
56,6720	297,7703
57,7060	297,7725
58,7400	297,7747
59,7740	297,7768
60,8080	297,7811
61,8420	297,7866
62,8770	297,7886
63,9120	297,7923
64,9470	297,7981
65,9820	297,8001
67,0170	297,8070
68,0510	297,8045
69,0850	297,8113
70,1190	297,8142
71,1530	297,8215
72,1870	297,8241
73,2200	297,8256
74,2540	297,8315
75,2880	297,8362
76,3220	297,8378
77,3560	297,8438
78,3900	297,8463
79,4240	297,8510
80,4590	297,8556
81,4940	297,8607
82,5290	297,8648
83,5640	297,8692
84,5980	297,8748
85,6320	297,8796
86,6660	297,8852
87,7000	297,8915
88,7340	297,8969
89,7680	297,9026
90,8010	297,9070
91,8350	297,9137
92,8690	297,9169
93,9030	297,9275
94,9370	297,9307
95,9710	297,9359
97,0050	297,9449
98,0400	297,9494
99,0750	297,9572
100,1100	297,9620
101,1450	297,9695
102,1790	297,9775
103,2130	297,9845
104,2470	297,9943
105,2810	297,9965
106,3150	298,0059
107,3490	298,0145
108,3830	298,0208
109,4160	298,0285
110,4500	298,0375
111,4840	298,0457
112,5180	298,0541
113,5520	298,0606
114,5860	298,0722
115,6210	298,0808
116,6560	298,0896
117,6910	298,0990
118,7260	298,1090
119,7600	298,1167
120,7940	298,1264
121,8280	298,1350
122,8620	298,1455
123,8960	298,1566
124,9300	298,1641
125,9630	298,1759
126,9970	298,1871
128,0310	298,1971
129,0650	298,2081
130,0990	298,2201
131,1330	298,2280
132,1670	298,2433
133,2020	298,2517
134,2370	298,2622
135,2720	298,2755
136,3070	298,2867
137,3410	298,2996
138,3750	298,3101
139,4090	298,3211
140,4430	298,3337
141,4770	298,3450
142,5110	298,3595
143,5440	298,3702
144,5780	298,3860
145,6120	298,3935
146,6460	298,4069
147,6800	298,4206
148,7140	298,4335
149,7480	298,4485
150,7830	298,4587
151,8180	298,4719
152,8530	298,4864
153,8880	298,5003
154,9220	298,5129
155,9560	298,5294
156,9900	298,5396
158,0240	298,5555
159,0580	298,5670
160,0920	298,5841
161,1250	298,5964
162,1590	298,6122
163,1930	298,6264
164,2270	298,6395
165,2610	298,6560
166,2950	298,6708
167,3290	298,6866
168,3640	298,6987
169,4000	298,7125
170,4350	298,7274
171,4700	298,7449
172,5040	298,7574
173,5380	298,7744
174,5720	298,7860
175,6060	298,8049
176,6400	298,8190
177,6740	298,8365
178,7070	298,8493
179,7410	298,8679
180,7750	298,8829
181,8090	298,8976
182,8430	298,9129
183,8770	298,9295
184,9110	298,9433
185,9460	298,9594
186,9810	298,9777
188,0160	298,9930
189,0510	299,0091
190,0850	299,0227
191,1190	299,0412
192,1530	299,0564
193,1870	299,0743
194,2210	299,0907
195,2550	299,1070
196,2880	299,1245
197,3220	299,1407
198,3560	299,1543
199,3900	299,1732
200,4240	299,1903
201,4580	299,2061
202,4920	299,2226
203,5270	299,2389
204,5620	299,2567
205,5970	299,2738
206,6320	299,2890
207,6660	299,3060
208,7000	299,3233
209,7340	299,3392
210,7680	299,3561
211,8020	299,3744
212,8350	299,3910
213,8690	299,4105
214,9030	299,4255
215,9370	299,4403
216,9710	299,4591
218,0050	299,4784
219,0390	299,4903
220,0730	299,5118
221,1080	299,5265
222,1430	299,5424
223,1780	299,5590
224,2130	299,5773
225,2470	299,5951
226,2810	299,6125
227,3150	299,6291
228,3490	299,6471
229,3830	299,6642
230,4170	299,6823
231,4500	299,6981
232,4840	299,7154
233,5180	299,7313
234,5520	299,7518
235,5860	299,7690
236,6200	299,7825
237,6540	299,8010
238,6890	299,8160
239,7240	299,8351
240,7590	299,8502
241,7940	299,8697
242,8280	299,8855
243,8620	299,9029
244,8960	299,9190
245,9300	299,9382
246,9640	299,9540
247,9970	299,9710
249,0310	299,9895
250,0650	300,0066
251,0990	300,0231
252,1330	300,0380
253,1670	300,0550
254,2010	300,0719
255,2350	300,0903
256,2700	300,1060
257,3050	300,1247
258,3400	300,1401
259,3750	300,1596
260,4090	300,1729
261,4430	300,1927
262,4770	300,2079
263,5110	300,2266
264,5450	300,2453
265,5790	300,2600
266,6120	300,2771
267,6460	300,2951
268,6800	300,3113
269,7140	300,3274
270,7480	300,3464
271,7820	300,3610
272,8170	300,3795
273,8520	300,3940
274,8870	300,4140
275,9220	300,4284
276,9570	300,4454
277,9910	300,4639
279,0250	300,4777
280,0590	300,4962
281,0930	300,5122
282,1270	300,5297
283,1600	300,5456
284,1940	300,5636
285,2280	300,5777
286,2620	300,5946
287,2960	300,6132
288,3300	300,6285
289,3640	300,6448
290,3990	300,6609
291,4340	300,6814
292,4690	300,6942
293,5040	300,7105
294,5390	300,7316
295,5730	300,7416
296,6070	300,7605
297,6410	300,7746
298,6750	300,7919
299,7090	300,8093
300,7420	300,8266
301,7760	300,8430
302,8100	300,8577
303,8440	300,8741
304,8780	300,8911
305,9120	300,9081
306,9460	300,9200
307,9810	300,9385
309,0160	300,9522
310,0510	300,9703
311,0860	300,9870
312,1200	301,0024
313,1540	301,0179
314,1880	301,0351
315,2220	301,0494
316,2560	301,0661
317,2900	301,0803
318,3230	301,0975
319,3570	301,1122
320,3910	301,1296
321,4250	301,1432
322,4590	301,1615
323,4930	301,1769
324,5270	301,1932
325,5620	301,2072
326,5970	301,2220
327,6320	301,2394
328,6670	301,2564
329,7010	301,2698
330,7350	301,2852
331,7690	301,3003
332,8030	301,3162
333,8370	301,3334
334,8710	301,3461
335,9040	301,3626
336,9380	301,3779
337,9720	301,3948
339,0060	301,4088
340,0400	301,4248
341,0740	301,4398
342,1080	301,4526
343,1430	301,4687
344,1780	301,4842
345,2130	301,5011
346,2480	301,5133
347,2820	301,5306
348,3160	301,5432
349,3500	301,5599
350,3840	301,5771
351,4180	301,5878
352,4520	301,6055
353,4850	301,6182
354,5190	301,6350
355,5530	301,6463
356,5870	301,6609
357,6210	301,6775
358,6550	301,6898
359,6890	301,7059
360,7240	301,7203
361,7590	301,7349
362,7940	301,7491
363,8290	301,7633
364,8630	301,7776
365,8970	301,7955
366,9310	301,8066
367,9650	301,8224
368,9990	301,8359
370,0330	301,8498
371,0660	301,8642
372,1000	301,8781
373,1340	301,8914
374,1680	301,9036
375,2020	301,9208
376,2360	301,9345
377,2700	301,9491
378,3050	301,9638
379,3390	301,9772
380,3740	301,9904
381,4090	302,0018
382,4430	302,0198
383,4770	302,0329
384,5110	302,0444
385,5450	302,0602
386,5790	302,0733
387,6130	302,0869
388,6460	302,1007
389,6800	302,1144
390,7140	302,1270
391,7480	302,1413
392,7820	302,1563
393,8160	302,1691
394,8500	302,1844
395,8850	302,1967
396,9200	302,2087
397,9550	302,2214
398,9900	302,2343
400,0240	302,2481
401,0580	302,2643
402,0920	302,2762
403,1260	302,2917
404,1600	302,3029
405,1940	302,3142
406,2270	302,3286
407,2610	302,3412
408,2950	302,3550
409,3290	302,3697
410,3630	302,3829
411,3970	302,3927
412,4310	302,4080
413,4660	302,4210
414,5010	302,4327
415,5360	302,4444
416,5710	302,4590
417,6050	302,4675
418,6390	302,4858
419,6730	302,4978
420,7070	302,5108
421,7410	302,5228
422,7750	302,5356
423,8080	302,5468
424,8420	302,5587
425,8760	302,5722
426,9100	302,5862
427,9440	302,5982
428,9780	302,6108
430,0120	302,6213
431,0470	302,6383
432,0820	302,6500
433,1170	302,6624
434,1520	302,6752
435,1860	302,6864
436,2200	302,7001
437,2540	302,7119
438,2880	302,7231
439,3220	302,7357
440,3560	302,7477
441,3890	302,7584
442,4230	302,7694
443,4570	302,7825
444,4910	302,7944
445,5250	302,8071
446,5590	302,8191
447,5930	302,8328
448,6280	302,8454
449,6630	302,8563
450,6980	302,8660
451,7330	302,8786
452,7670	302,8927
453,8010	302,9060
454,8350	302,9141
455,8690	302,9290
456,9030	302,9378
457,9360	302,9494
458,9700	302,9607
460,0040	302,9750
461,0380	302,9861
462,0720	302,9958
463,1060	303,0098
464,1400	303,0215
465,1740	303,0320
466,2090	303,0424
467,2440	303,0548
468,2790	303,0679
469,3140	303,0795
470,3480	303,0885
471,3820	303,0998
472,4160	303,1102
473,4500	303,1248
474,4840	303,1329
475,5180	303,1466
476,5510	303,1583
477,5850	303,1687
478,6190	303,1797
479,6530	303,1892
480,6870	303,2010
481,7210	303,2135
482,7560	303,2243
483,7910	303,2365
484,8260	303,2466
485,8610	303,2568
486,8960	303,2671
487,9300	303,2811
488,9640	303,2896
489,9980	303,3024
491,0320	303,3122
492,0660	303,3242
493,0990	303,3327
494,1330	303,3468
495,1670	303,3539
496,2010	303,3689
497,2350	303,3770
498,2690	303,3904
499,3040	303,3996
500,3390	303,4102
501,3740	303,4188
502,4090	303,4314
503,4440	303,4414
504,4790	303,4540
505,5130	303,4652
506,5470	303,4727
507,5810	303,4824
508,6150	303,4945
509,6490	303,5068
510,6820	303,5153
511,7160	303,5279
512,7500	303,5384
513,7840	303,5459
514,8180	303,5586
515,8520	303,5677
516,8860	303,5800
517,9210	303,5918
518,9560	303,5980
519,9910	303,6088
521,0260	303,6207
522,0610	303,6312
523,0950	303,6425
524,1290	303,6513
525,1630	303,6604
526,1970	303,6712
527,2310	303,6810
528,2640	303,6915
529,2990	303,7042
530,3320	303,7117
531,3660	303,7210
532,4000	303,7319
533,4340	303,7435
534,4680	303,7513
535,5030	303,7626
536,5380	303,7728
537,5730	303,7829
538,6080	303,7920
539,6430	303,8005
540,6770	303,8118
541,7110	303,8225
542,7450	303,8314
543,7790	303,8429
544,8130	303,8512
545,8470	303,8625
546,8800	303,8708
547,9140	303,8812
548,9480	303,8919
549,9820	303,8976
551,0160	303,9114
552,0500	303,9184
553,0850	303,9276
554,1200	303,9385
555,1550	303,9488
556,1900	303,9563
557,2240	303,9690
558,2580	303,9783
559,2920	303,9882
560,3260	303,9957
561,3600	304,0049
562,3940	304,0146
563,4270	304,0258
564,4610	304,0329
565,4950	304,0416
566,5290	304,0509
567,5630	304,0623
568,5970	304,0713
569,6310	304,0798
570,6660	304,0901
571,7010	304,0991
572,7360	304,1084
573,7710	304,1180
574,8050	304,1245
575,8390	304,1347
576,8730	304,1486
577,9070	304,1539
578,9410	304,1660
579,9750	304,1730
581,0080	304,1835
582,0420	304,1900
583,0760	304,2023
584,1100	304,2062
585,1440	304,2175
586,1780	304,2268
587,2120	304,2341
588,2460	304,2460
589,2810	304,2536
590,3160	304,2638
591,3510	304,2727
592,3850	304,2815
593,4190	304,2884
594,4530	304,2981
595,4870	304,3096
596,5210	304,3164
597,5550	304,3268
598,5880	304,3338
599,6220	304,3421
600,6560	304,3529
601,6900	304,3584
602,7240	304,3686
603,7580	304,3758
604,7920	304,3878
605,8270	304,3946
606,8620	304,4032
607,8970	304,4129
608,9320	304,4203
609,9660	304,4291
611,0000	304,4387
612,0340	304,4486
613,0680	304,4555
614,1020	304,4657
615,1360	304,4731
616,1690	304,4786
617,2030	304,4905
618,2370	304,4994
619,2710	304,5068
620,3050	304,5156
621,3390	304,5217
622,3730	304,5330
623,4080	304,5390
624,4430	304,5455
625,4780	304,5549
626,5130	304,5662
627,5470	304,5732
628,5810	304,5820
629,6150	304,5889
630,6490	304,5977
631,6830	304,6063
632,7170	304,6147
633,7500	304,6242
634,7840	304,6332
635,8180	304,6385
636,8520	304,6457
637,8860	304,6525
638,9200	304,6611
639,9550	304,6710
640,9900	304,6797
642,0250	304,6862
643,0600	304,6944
644,0950	304,7039
645,1290	304,7107
646,1630	304,7186
647,1970	304,7294
648,2310	304,7362
649,2650	304,7446
650,2990	304,7522
651,3320	304,7586
652,3660	304,7647
653,4000	304,7723
654,4340	304,7798
655,4680	304,7882
656,5020	304,7969
657,5370	304,8052
658,5720	304,8124
659,6070	304,8198
660,6420	304,8270
661,6770	304,8332
662,7110	304,8428
663,7450	304,8502
664,7790	304,8589
665,8130	304,8661
666,8470	304,8750
667,8810	304,8827
668,9140	304,8886
669,9480	304,8984
670,9820	304,9052
672,0160	304,9114
673,0500	304,9187
674,0840	304,9290
675,1180	304,9349
676,1530	304,9419
677,1880	304,9473
678,2230	304,9547
679,2580	304,9635
680,2920	304,9712
681,3260	304,9781
682,3600	304,9844
683,3940	304,9926
684,4280	305,0001
685,4620	305,0035
686,4950	305,0134
687,5290	305,0208
688,5630	305,0281
689,5970	305,0354
690,6310	305,0428
691,6650	305,0506
692,6990	305,0563
693,7340	305,0636
694,7690	305,0710
695,8040	305,0776
696,8390	305,0856
697,8730	305,0930
698,9070	305,1014
699,9410	305,1046
700,9750	305,1142
702,0090	305,1201
703,0420	305,1242
704,0760	305,1319
705,1100	305,1411
706,1440	305,1484
707,1780	305,1529
708,2120	305,1602
709,2460	305,1675
710,2810	305,1729
711,3160	305,1805
712,3510	305,1882
713,3860	305,1939
714,4210	305,2001
715,4550	305,2061
716,4890	305,2123
717,5230	305,2229
718,5570	305,2245
719,5910	305,2345
720,6240	305,2400
721,6580	305,2443
722,6920	305,2516
723,7260	305,2577
724,7600	305,2668
725,7940	305,2717
726,8280	305,2798
727,8630	305,2860
728,8980	305,2893
729,9330	305,2974
730,9680	305,3054
732,0030	305,3101
733,0370	305,3149
734,0710	305,3208
735,1050	305,3281
736,1390	305,3351
737,1730	305,3416
738,2060	305,3452
739,2400	305,3543
740,2740	305,3585
741,3080	305,3661
742,3420	305,3713
743,3760	305,3788
744,4100	305,3850
745,4450	305,3908
746,4800	305,3978
747,5150	305,4055
748,5500	305,4089
749,5850	305,4164
750,6190	305,4199
751,6530	305,4262
752,6870	305,4340
753,7210	305,4380
754,7550	305,4447
755,7880	305,4506
756,8220	305,4554
757,8560	305,4628
758,8900	305,4688
759,9240	305,4733
760,9580	305,4798
761,9920	305,4861
763,0270	305,4902
764,0620	305,4972
765,0970	305,5003
766,1320	305,5115
767,1660	305,5132
768,2000	305,5186
769,2340	305,5227
770,2680	305,5296
771,3020	305,5359
772,3360	305,5432
773,3690	305,5472
774,4030	305,5527
775,4370	305,5604
776,4710	305,5661
777,5050	305,5690
778,5390	305,5754
779,5730	305,5800
780,6080	305,5850
781,6430	305,5921
782,6780	305,6001
783,7130	305,6022
784,7480	305,6084
785,7820	305,6154
786,8160	305,6213
787,8500	305,6250
788,8840	305,6302
789,9180	305,6345
790,9510	305,6410
791,9850	305,6459
793,0190	305,6538
794,0530	305,6546
795,0870	305,6614
796,1210	305,6655
797,1550	305,6716
798,1900	305,6783
799,2250	305,6839
800,2600	305,6880
801,2950	305,6923
802,3290	305,6976
803,3630	305,7040
804,3970	305,7056
805,4310	305,7153
806,4650	305,7184
807,4990	305,7235
808,5320	305,7267
809,5660	305,7334
810,6000	305,7393
811,6340	305,7408
812,6690	305,7485
813,7030	305,7526
814,7380	305,7599
815,7730	305,7627
816,8080	305,7668
817,8430	305,7749
818,8780	305,7781
819,9130	305,7820
820,9470	305,7858
821,9810	305,7918
823,0150	305,7953
824,0490	305,8017
825,0830	305,8061
826,1170	305,8105
827,1500	305,8134
828,1840	305,8198
829,2180	305,8269
830,2520	305,8301
831,2860	305,8349
832,3200	305,8405
833,3550	305,8434
834,3900	305,8493
835,4250	305,8527
836,4600	305,8578
837,4940	305,8630
838,5280	305,8669
839,5620	305,8719
840,5960	305,8757
841,6300	305,8804
842,6640	305,8860
843,6970	305,8888
844,7310	305,8937
845,7650	305,8966
846,7990	305,9040
847,8330	305,9098
848,8670	305,9130
849,9010	305,9168
850,9360	305,9207
851,9710	305,9246
853,0060	305,9306
854,0410	305,9343
855,0750	305,9369
856,1090	305,9438
857,1430	305,9489
858,1770	305,9515
859,2110	305,9567
860,2450	305,9603
861,2780	305,9650
862,3120	305,9699
863,3460	305,9725
864,3800	305,9752
865,4140	305,9815
866,4480	305,9865
867,4820	305,9904
868,5170	305,9945
869,5520	305,9995
870,5870	306,0018
871,6220	306,0069
872,6560	306,0114
873,6900	306,0133
874,7240	306,0202
875,7580	306,0222
876,7920	306,0262
877,8260	306,0320
878,8590	306,0384
879,8930	306,0394
880,9270	306,0434
881,9610	306,0457
882,9950	306,0494
884,0290	306,0548
885,0630	306,0588
886,0980	306,0632
887,1330	306,0673
888,1680	306,0704
889,2030	306,0743
890,2370	306,0800
891,2710	306,0818
892,3050	306,0882
893,3390	306,0912
894,3730	306,0939
895,4060	306,0993
896,4400	306,1010
897,4740	306,1059
898,5080	306,1076
899,5420	306,1151
900,5760	306,1164
901,6100	306,1194
902,6450	306,1239
903,6800	306,1259
904,7150	306,1312
905,7500	306,1360
906,7850	306,1406
907,8190	306,1428
908,8530	306,1455
909,8870	306,1489
910,9210	306,1534
911,9550	306,1588
912,9890	306,1581
914,0220	306,1632
915,0560	306,1721
916,0900	306,1714
917,1240	306,1761
918,1580	306,1803
919,1920	306,1826
920,2270	306,1846
921,2620	306,1903
922,2970	306,1949
923,3320	306,1941
924,3670	306,1980
925,4010	306,2031
926,4350	306,2092
927,4690	306,2105
928,5030	306,2150
929,5370	306,2171
930,5700	306,2218
931,6040	306,2262
932,6380	306,2301
933,6720	306,2321
934,7060	306,2373
935,7400	306,2420
936,7740	306,2432
937,8090	306,2469
938,8440	306,2506
939,8790	306,2540
940,9140	306,2576
941,9490	306,2627
942,9830	306,2632
944,0170	306,2672
945,0510	306,2694
946,0850	306,2726
947,1190	306,2769
948,1530	306,2798
949,1860	306,2805
950,2200	306,2855
951,2540	306,2914
952,2880	306,2942
953,3220	306,2971
954,3560	306,2985
955,3910	306,3007
956,4260	306,3059
957,4610	306,3075
958,4960	306,3133
959,5310	306,3146
960,5650	306,3177
961,5990	306,3207
962,6330	306,3243
963,6670	306,3289
964,7010	306,3315
965,7340	306,3317
966,7680	306,3365
967,8020	306,3403
968,8360	306,3446
969,8700	306,3463
970,9040	306,3505
971,9380	306,3519
972,9730	306,3538
974,0080	306,3580
975,0430	306,3599
976,0780	306,3651
977,1130	306,3683
978,1470	306,3704
979,1810	306,3758
980,2150	306,3745
981,2490	306,3809
982,2830	306,3820
983,3170	306,3872
984,3500	306,3894
985,3840	306,3925
986,4180	306,3943
987,4520	306,3983
988,4860	306,4027
989,5200	306,4048
990,5550	306,4062
991,5900	306,4092
992,6250	306,4131
993,6600	306,4165
994,6940	306,4197
995,7280	306,4216
996,7620	306,4232
997,7960	306,4264
998,8300	306,4292
999,8640	306,4331
1000,8970	306,4370
1001,9310	306,4384
1002,9650	306,4416
1003,9990	306,4432
1005,0330	306,4483
1006,0670	306,4527
1007,1010	306,4508
1008,1360	306,4547
1009,1710	306,4570
1010,2060	306,4603
1011,2410	306,4607
1012,2750	306,4659
1013,3090	306,4690
1014,3430	306,4702
1015,3770	306,4762
1016,4110	306,4773
1017,4450	306,4799
1018,4780	306,4831
1019,5120	306,4855
1020,5460	306,4872
1021,5800	306,4897
1022,6140	306,4912
1023,6480	306,4962
1024,6820	306,4993
1025,7170	306,4992
1026,7520	306,5024
1027,7870	306,5063
1028,8220	306,5095
1029,8560	306,5102
1030,8900	306,5140
1031,9240	306,5163
1032,9580	306,5179
1033,9920	306,5196
1035,0260	306,5219
1036,0590	306,5262
1037,0930	306,5283
1038,1270	306,5302
1039,1610	306,5316
1040,1950	306,5342
1041,2290	306,5377
1042,2630	306,5424
1043,2980	306,5452
1044,3330	306,5455
1045,3680	306,5483
1046,4030	306,5505
1047,4370	306,5549
1048,4710	306,5552
1049,5050	306,5605
1050,5390	306,5617
1051,5730	306,5630
1052,6070	306,5665
1053,6400	306,5691
1054,6740	306,5698
1055,7080	306,5735
1056,7420	306,5765
1057,7760	306,5760
1058,8100	306,5790
1059,8440	306,5826
1060,8790	306,5846
1061,9140	306,5846
1062,9490	306,5907
1063,9840	306,5917
1065,0180	306,5963
1066,0520	306,5955
1067,0860	306,5991
1068,1200	306,6023
1069,1540	306,6019
1070,1880	306,6047
1071,2210	306,6065
1072,2550	306,6117
1073,2890	306,6127
1074,3230	306,6145
1075,3570	306,6167
1076,3910	306,6201
1077,4250	306,6199
1078,4600	306,6269
1079,4950	306,6262
1080,5300	306,6267
1081,5650	306,6309
1082,5990	306,6310
1083,6330	306,6332
1084,6670	306,6361
1085,7010	306,6376
1086,7350	306,6403
1087,7690	306,6441
1088,8020	306,6455
1089,8360	306,6463
1090,8700	306,6481
1091,9040	306,6530
1092,9380	306,6542
1093,9720	306,6582
1095,0060	306,6593
1096,0420	306,6609
1097,0770	306,6620
1098,1120	306,6659
1099,1470	306,6676
1100,1810	306,6704
1101,2150	306,6714
1102,2490	306,6728
1103,2830	306,6748
1104,3170	306,6755
1105,3510	306,6790
1106,3840	306,6776
1107,4180	306,6824
1108,4520	306,6832
1109,4860	306,6869
1110,5200	306,6880
1111,5540	306,6913
1112,5880	306,6925
1113,6230	306,6919
1114,6580	306,6938
1115,6930	306,6990
1116,7280	306,7002
1117,7620	306,7029
1118,7960	306,7017
1119,8300	306,7040
1120,8640	306,7047
1121,8980	306,7076
1122,9320	306,7116
1123,9650	306,7153
1124,9990	306,7159
1126,0330	306,7173
1127,0670	306,7186
1128,1010	306,7198
1129,1350	306,7232
1130,1690	306,7253
1131,2040	306,7261
1132,2390	306,7290
1133,2740	306,7316
1134,3090	306,7344
1135,3430	306,7334
1136,3770	306,7375
1137,4110	306,7374
1138,4450	306,7412
1139,4790	306,7435
1140,5130	306,7435
1141,5460	306,7475
1142,5800	306,7470
1143,6140	306,7466
1144,6480	306,7516
1145,6820	306,7539
1146,7160	306,7562
1147,7510	306,7571
1148,7860	306,7572
1149,8210	306,7615
1150,8560	306,7620
1151,8910	306,7631
1152,9250	306,7639
1153,9590	306,7667
1154,9930	306,7689
1156,0270	306,7695
1157,0610	306,7698
1158,0950	306,7733
1159,1280	306,7753
1160,1620	306,7753
1161,1960	306,7782
1162,2300	306,7811
1163,2640	306,7824
1164,2980	306,7835
1165,3330	306,7861
1166,3680	306,7879
1167,4030	306,7900
1168,4380	306,7907
1169,4730	306,7918
1170,5070	306,7968
1171,5410	306,7986
1172,5750	306,7999
1173,6090	306,8003
1174,6430	306,8018
1175,6770	306,8036
1176,7100	306,8052
1177,7440	306,8040
1178,7780	306,8061
1179,8120	306,8100
1180,8460	306,8117
1181,8800	306,8116
1182,9150	306,8153
1183,9500	306,8177
1184,9850	306,8184
1186,0200	306,8184
1187,0550	306,8217
1188,0890	306,8251
1189,1230	306,8232
1190,1570	306,8271
1191,1910	306,8261
1192,2250	306,8286
1193,2580	306,8313
1194,2920	306,8309
1195,3260	306,8327
1196,3600	306,8331
1197,3940	306,8355
1198,4280	306,8355
1199,4620	306,8391
1200,4970	306,8408
1201,5320	306,8408
1202,5670	306,8420
1203,6020	306,8453
1204,6370	306,8471
1205,6710	306,8474
1206,7050	306,8514
1207,7390	306,8526
1208,7730	306,8530
1209,8070	306,8530
1210,8400	306,8546
1211,8750	306,8576
1212,9080	306,8587
1213,9420	306,8601
1214,9760	306,8621
1216,0100	306,8635
1217,0440	306,8628
1218,0790	306,8667
1219,1140	306,8702
1220,1490	306,8679
1221,1840	306,8715
1222,2180	306,8748
1223,2520	306,8716
1224,2860	306,8754
1225,3200	306,8785
1226,3540	306,8778
1227,3880	306,8779
1228,4210	306,8793
1229,4550	306,8826
1230,4890	306,8836
1231,5230	306,8837
1232,5570	306,8838
1233,5910	306,8881
1234,6250	306,8878
1235,6600	306,8922
1236,6950	306,8910
1237,7300	306,8929
1238,7650	306,8957
1239,8000	306,8961
1240,8340	306,8988
1241,8680	306,8979
1242,9020	306,9007
1243,9360	306,9019
1244,9700	306,9018
1246,0030	306,9050
1247,0370	306,9042
1248,0710	306,9098
1249,1050	306,9080
1250,1390	306,9092
1251,1730	306,9107
1252,2070	306,9139
1253,2420	306,9144
1254,2770	306,9131
1255,3120	306,9154
1256,3470	306,9171
1257,3810	306,9205
1258,4150	306,9213
1259,4490	306,9223
1260,4830	306,9217
1261,5170	306,9249
1262,5510	306,9241
1263,5840	306,9241
1264,6180	306,9261
1265,6520	306,9268
1266,6860	306,9317
1267,7200	306,9294
1268,7540	306,9331
1269,7880	306,9326
1270,8230	306,9378
1271,8580	306,9384
1272,8930	306,9396
1273,9280	306,9383
1274,9630	306,9420
1275,9970	306,9412
1277,0310	306,9441
1278,0650	306,9439
1279,0990	306,9474
1280,1330	306,9469
1281,1670	306,9492
1282,2000	306,9486
1283,2340	306,9482
1284,2680	306,9542
1285,3020	306,9529
1286,3360	306,9520
1287,3700	306,9565
1288,4050	306,9564
1289,4400	306,9577
1290,4750	306,9590
1291,5100	306,9624
1292,5440	306,9614
1293,5780	306,9615
1294,6120	306,9644
1295,6460	306,9674
1296,6800	306,9673
1297,7140	306,9687
1298,7470	306,9676
1299,7810	306,9705
1300,8150	306,9702
1301,8490	306,9708
1302,8830	306,9700
1303,9170	306,9718
1304,9510	306,9759
1305,9860	306,9746
1307,0210	306,9778
1308,0560	306,9798
1309,0910	306,9804
1310,1250	306,9846
1311,1590	306,9802
1312,1930	306,9820
1313,2270	306,9817
1314,2610	306,9856
1315,2950	306,9865
1316,3290	306,9863
1317,3620	306,9864
1318,3960	306,9889
1319,4300	306,9894
1320,4640	306,9914
1321,4980	306,9937
1322,5320	306,9928
1323,5670	306,9938
1324,6020	306,9956
1325,6370	306,9954
1326,6720	306,9987
1327,7060	306,9984
1328,7400	306,9997
1329,7740	306,9997
1330,8080	307,0028
1331,8420	307,0004
1332,8760	307,0052
1333,9090	307,0033
1334,9430	307,0049
1335,9770	307,0075
1337,0110	307,0074
1338,0450	307,0081
1339,0790	307,0098
1340,1130	307,0100
1341,1480	307,0124
1342,1830	307,0118
1343,2180	307,0135
1344,2530	307,0140
1345,2870	307,0161
1346,3210	307,0164
1347,3550	307,0166
1348,3890	307,0177
1349,4230	307,0192
1350,4570	307,0204
1351,4900	307,0231
1352,5240	307,0232
1353,5580	307,0253
1354,5920	307,0218
1355,6260	307,0276
1356,6600	307,0279
1357,6950	307,0332
1358,7300	307,0277
1359,7650	307,0279
1360,8000	307,0302
1361,8350	307,0327
1362,8690	307,0317
1363,9030	307,0347
1364,9370	307,0326
1365,9710	307,0343
1367,0050	307,0377
1368,0390	307,0373
1369,0720	307,0382
1370,1060	307,0367
1371,1400	307,0392
1372,1740	307,0436
1373,2080	307,0427
1374,2420	307,0445
1375,2760	307,0435
1376,3110	307,0458
1377,3460	307,0457
1378,3810	307,0455
1379,4160	307,0463
1380,4500	307,0483
1381,4840	307,0493
1382,5180	307,0509
1383,5520	307,0504
1384,5860	307,0525
1385,6190	307,0531
1386,6530	307,0532
1387,6870	307,0556
1388,7210	307,0567
1389,7550	307,0548
1390,7890	307,0569
1391,8230	307,0583
1392,8580	307,0573
1393,8930	307,0610
1394,9280	307,0605
1395,9630	307,0606
1396,9980	307,0671
1398,0320	307,0623
1399,0660	307,0649
1400,1000	307,0657
1401,1340	307,0653
1402,1680	307,0662
1403,2020	307,0677
1404,2350	307,0701
1405,2690	307,0703
1406,3030	307,0727
1407,3370	307,0714
1408,3710	307,0720
1409,4050	307,0750
1410,4400	307,0756
1411,4750	307,0760
1412,5100	307,0756
1413,5450	307,0800
1414,5800	307,0769
1415,6140	307,0790
1416,6480	307,0813
1417,6820	307,0801
1418,7160	307,0827
1419,7500	307,0820
1420,7830	307,0836
1421,8170	307,0846
1422,8510	307,0854
1423,8850	307,0856
1424,9190	307,0896
1425,9530	307,0903
1426,9870	307,0887
1428,0220	307,0881
1429,0570	307,0905
1430,0920	307,0896
1431,1270	307,0920
1432,1610	307,0920
1433,1950	307,0923
1434,2290	307,0930
1435,2630	307,0929
1436,2970	307,0932
1437,3310	307,0954
1438,3650	307,0967
1439,3980	307,0976
1440,4320	307,0977
1441,4660	307,0995
1442,5000	307,0997
1443,5340	307,0999
1444,5680	307,1013
1445,6030	307,1031
1446,6380	307,1037
1447,6730	307,1026
1448,7080	307,1045
1449,7420	307,1059
1450,7770	307,1073
1451,8110	307,1097
1452,8450	307,1081
1453,8790	307,1077
1454,9130	307,1076
1455,9460	307,1080
1456,9800	307,1112
1458,0140	307,1094
1459,0480	307,1118
1460,0820	307,1130
1461,1160	307,1126
1462,1500	307,1139
1463,1860	307,1151
1464,2210	307,1147
1465,2560	307,1165
1466,2910	307,1166
1467,3250	307,1166
1468,3590	307,1164
1469,3930	307,1192
1470,4270	307,1198
1471,4610	307,1188
1472,4950	307,1204
1473,5290	307,1205
1474,5620	307,1205
1475,5960	307,1251
1476,6300	307,1242
1477,6640	307,1260
1478,6980	307,1243
1479,7320	307,1274
1480,7670	307,1273
1481,8020	307,1276
1482,8370	307,1286
1483,8720	307,1302
1484,9060	307,1318
1485,9400	307,1293
1486,9740	307,1331
1488,0080	307,1307
1489,0420	307,1345
1490,0760	307,1328
1491,1090	307,1350
1492,1430	307,1355
1493,1770	307,1356
1494,2110	307,1345
1495,2450	307,1387
1496,2790	307,1376
1497,3130	307,1380
1498,3480	307,1384
1499,3830	307,1387
1500,4180	307,1395
1501,4530	307,1409
1502,4870	307,1420
1503,5210	307,1421
1504,5550	307,1423
1505,5890	307,1428
1506,6230	307,1441
1507,6570	307,1443
1508,6900	307,1453
1509,7240	307,1477
1510,7580	307,1478
1511,7920	307,1474
1512,8260	307,1474
1513,8600	307,1508
1514,8940	307,1497
1515,9290	307,1506
1516,9640	307,1521
1517,9990	307,1522
1519,0340	307,1509
1520,0680	307,1526
1521,1020	307,1550
1522,1360	307,1530
1523,1700	307,1536
1524,2040	307,1550
1525,2380	307,1558
1526,2710	307,1575
1527,3050	307,1567
1528,3390	307,1581
1529,3730	307,1591
1530,4070	307,1580
1531,4410	307,1591
1532,4750	307,1611
1533,5100	307,1644
1534,5450	307,1598
1535,5800	307,1606
1536,6150	307,1643
1537,6490	307,1637
1538,6830	307,1645
1539,7170	307,1666
1540,7510	307,1650
1541,7850	307,1657
1542,8190	307,1651
1543,8520	307,1673
1544,8860	307,1686
1545,9200	307,1685
1546,9540	307,1687
1547,9880	307,1693
1549,0220	307,1709
1550,0560	307,1708
1551,0910	307,1710
1552,1260	307,1733
1553,1610	307,1726
1554,1960	307,1718
1555,2300	307,1737
1556,2650	307,1739
1557,2990	307,1725
1558,3330	307,1748
1559,3670	307,1753
1560,4010	307,1745
1561,4340	307,1782
1562,4680	307,1770
1563,5020	307,1780
1564,5360	307,1784
1565,5700	307,1778
1566,6040	307,1799
1567,6380	307,1809
1568,6730	307,1802
1569,7080	307,1810
1570,7430	307,1823
1571,7780	307,1811
1572,8120	307,1849
1573,8460	307,1811
1574,8800	307,1802
1575,9140	307,1839
1576,9480	307,1857
1577,9820	307,1867
1579,0150	307,1846
1580,0490	307,1855
1581,0830	307,1873
1582,1170	307,1889
1583,1510	307,1887
1584,1850	307,1876
1585,2190	307,1890
1586,2540	307,1876
1587,2890	307,1885
1588,3240	307,1903
1589,3590	307,1925
1590,3930	307,1923
1591,4270	307,1932
1592,4610	307,1923
1593,4950	307,1919
1594,5290	307,1965
1595,5630	307,1941
1596,5960	307,1963
1597,6300	307,1943
1598,6650	307,1938
1599,6980	307,1944
1600,7320	307,1968
1601,7660	307,1966
1602,8010	307,1961
1603,8360	307,1951
1604,8710	307,1987
1605,9060	307,1953
1606,9410	307,1983
1607,9750	307,1972
1609,0090	307,1975
1610,0430	307,1994
1611,0770	307,1991
1612,1110	307,2018
1613,1450	307,2019
1614,1780	307,2022
1615,2120	307,2008
1616,2460	307,2024
1617,2800	307,2024
1618,3140	307,2049
1619,3480	307,2039
1620,3830	307,2050
1621,4180	307,2055
1622,4530	307,2050
1623,4880	307,2064
1624,5230	307,2054
1625,5570	307,2072
1626,5910	307,2045
1627,6250	307,2067
1628,6590	307,2079
1629,6930	307,2063
1630,7270	307,2085
1631,7600	307,2090
1632,7940	307,2092
1633,8280	307,2090
1634,8620	307,2077
1635,8960	307,2104
1636,9300	307,2099
1637,9650	307,2111
1639,0000	307,2114
1640,0350	307,2135
1641,0700	307,2109
1642,1050	307,2137
1643,1390	307,2108
1644,1730	307,2145
1645,2070	307,2130
1646,2410	307,2138
1647,2750	307,2135
1648,3080	307,2150
1649,3420	307,2148
1650,3760	307,2151
1651,4100	307,2159
1652,4440	307,2154
1653,4780	307,2159
1654,5120	307,2176
1655,5470	307,2167
1656,5820	307,2178
1657,6170	307,2184
1658,6520	307,2167
1659,6860	307,2196
1660,7200	307,2165
1661,7540	307,2196
1662,7880	307,2187
1663,8220	307,2192
1664,8560	307,2215
1665,8900	307,2202
1666,9230	307,2208
1667,9570	307,2222
1668,9910	307,2220
1670,0250	307,2218
1671,0590	307,2228
1672,0930	307,2226
1673,1280	307,2234
1674,1630	307,2229
1675,1980	307,2244
1676,2330	307,2257
1677,2670	307,2231
1678,3010	307,2248
1679,3350	307,2240
1680,3690	307,2256
1681,4030	307,2243
1682,4370	307,2257
1683,4700	307,2275
1684,5040	307,2271
1685,5380	307,2287
1686,5720	307,2302
1687,6060	307,2275
1688,6400	307,2295
1689,6740	307,2300
1690,7090	307,2290
1691,7440	307,2312
1692,7790	307,2312
1693,8140	307,2302
1694,8480	307,2298
1695,8820	307,2314
1696,9170	307,2324
1697,9510	307,2315
1698,9850	307,2342
1700,0190	307,2314
1701,0520	307,2333
1702,0860	307,2326
1703,1200	307,2313
1704,1540	307,2333
1705,1880	307,2355
1706,2220	307,2317
1707,2560	307,2346
1708,2910	307,2357
1709,3260	307,2346
1710,3610	307,2310
1711,3960	307,2337
1712,4300	307,2363
1713,4640	307,2373
1714,4980	307,2340
1715,5320	307,2373
1716,5660	307,2376
1717,6010	307,2379
1718,6340	307,2376
1719,6680	307,2377
1720,7020	307,2368
1721,7360	307,2397
1722,7700	307,2368
1723,8040	307,2392
1724,8380	307,2387
1725,8730	307,2408
1726,9080	307,2388
1727,9430	307,2395
1728,9780	307,2427
1730,0120	307,2405
1731,0460	307,2376
1732,0800	307,2407
1733,1140	307,2417
1734,1480	307,2407
1735,1820	307,2435
1736,2150	307,2425
1737,2490	307,2434
1738,2830	307,2451
1739,3170	307,2442
1740,3510	307,2450
1741,3850	307,2431
1742,4190	307,2439
1743,4540	307,2462
1744,4890	307,2444
1745,5240	307,2455
1746,5590	307,2474
1747,5930	307,2461
1748,6270	307,2478
1749,6610	307,2457
1750,6950	307,2504
1751,7290	307,2494
1752,7630	307,2480
1753,7960	307,2480
1754,8300	307,2495
1755,8640	307,2494
1756,8980	307,2502
1757,9320	307,2478
1758,9660	307,2508
1760,0000	307,2501
1761,0350	307,2477
1762,0700	307,2509
1763,1050	307,2502
1764,1400	307,2514
1765,1740	307,2531
1766,2080	307,2505
1767,2420	307,2497
1768,2760	307,2540
1769,3100	307,2515
1770,3440	307,2533
1771,3770	307,2523
1772,4110	307,2518
1773,4450	307,2546
1774,4790	307,2548
1775,5130	307,2551
1776,5470	307,2546
1777,5810	307,2562
1778,6160	307,2546
1779,6510	307,2561
1780,6860	307,2553
1781,7210	307,2544
1782,7550	307,2548
1783,7890	307,2556
1784,8230	307,2538
1785,8570	307,2586
1786,8910	307,2586
1787,9250	307,2573
1788,9580	307,2571
1789,9920	307,2573
1791,0260	307,2606
1792,0600	307,2593
1793,0940	307,2573
1794,1280	307,2582
1795,1620	307,2587
1796,1970	307,2593
1797,2320	307,2609
1798,2670	307,2593
1799,3020	307,2601
1800,3360	307,2596
1801,3700	307,2613
1802,4040	307,2594
1803,4380	307,2587
1804,4720	307,2600
1805,5060	307,2587
1806,5400	307,2600
1807,5730	307,2639
1808,6070	307,2609
1809,6410	307,2635
1810,6750	307,2627
1811,7090	307,2642
1812,7440	307,2643
1813,7790	307,2618
1814,8140	307,2631
1815,8490	307,2647
1816,8840	307,2651
1817,9180	307,2643
1818,9520	307,2601
1819,9860	307,2659
1821,0200	307,2650
1822,0540	307,2645
1823,0890	307,2659
1824,1220	307,2642
1825,1560	307,2663
1826,1900	307,2651
1827,2240	307,2649
1828,2580	307,2653
1829,2920	307,2685
1830,3260	307,2675
1831,3620	307,2671
1832,3970	307,2698
1833,4320	307,2664
1834,4670	307,2690
1835,5010	307,2691
1836,5350	307,2695
1837,5690	307,2672
1838,6030	307,2709
1839,6370	307,2686
1840,6710	307,2696
1841,7040	307,2692
1842,7380	307,2706
1843,7720	307,2725
1844,8060	307,2713
1845,8400	307,2718
1846,8740	307,2718
1847,9090	307,2728
1848,9440	307,2720
1849,9790	307,2709
1851,0140	307,2726
1852,0490	307,2708
1853,0830	307,2714
1854,1170	307,2711
1855,1510	307,2738
1856,1850	307,2734
1857,2190	307,2711
1858,2530	307,2758
1859,2860	307,2741
1860,3200	307,2728
1861,3540	307,2753
1862,3880	307,2726
1863,4220	307,2734
1864,4560	307,2751
1865,4910	307,2739
1866,5260	307,2766
1867,5610	307,2757
1868,5960	307,2781
1869,6310	307,2768
1870,6650	307,2774
1871,6990	307,2778
1872,7330	307,2754
1873,7670	307,2779
1874,8010	307,2763
1875,8340	307,2770
1876,8680	307,2760
1877,9020	307,2780
1878,9360	307,2768
1879,9700	307,2760
1881,0040	307,2782
1882,0380	307,2780
1883,0730	307,2784
1884,1080	307,2784
1885,1430	307,2793
1886,1780	307,2772
1887,2120	307,2775
1888,2460	307,2786
1889,2800	307,2784
1890,3140	307,2799
1891,3480	307,2788
1892,3820	307,2776
1893,4160	307,2786
1894,4490	307,2800
1895,4830	307,2789
1896,5170	307,2801
1897,5510	307,2795
1898,5850	307,2793
1899,6190	307,2782
1900,6540	307,2805
1901,6890	307,2808
1902,7240	307,2801
1903,7590	307,2809
1904,7930	307,2808
1905,8270	307,2816
1906,8610	307,2822
1907,8950	307,2813
1908,9290	307,2806
1909,9630	307,2802
1910,9960	307,2813
1912,0300	307,2804
1913,0640	307,2811
1914,0980	307,2822
1915,1320	307,2822
1916,1660	307,2823
1917,2000	307,2804
1918,2350	307,2830
1919,2700	307,2851
1920,3050	307,2793
1921,3400	307,2821
1922,3740	307,2851
1923,4080	307,2825
1924,4420	307,2848
1925,4760	307,2830
1926,5100	307,2859
1927,5440	307,2835
1928,5780	307,2830
1929,6110	307,2845
1930,6450	307,2838
1931,6790	307,2825
1932,7130	307,2840
1933,7470	307,2832
1934,7810	307,2851
1935,8150	307,2837
1936,8500	307,2834
1937,8850	307,2853
1938,9200	307,2837
1939,9540	307,2859
1940,9880	307,2873
1942,0220	307,2864
1943,0570	307,2854
1944,0910	307,2866
1945,1250	307,2844
1946,1580	307,2863
1947,1920	307,2850
1948,2260	307,2847
1949,2600	307,2843
1950,2940	307,2865
1951,3280	307,2839
1952,3620	307,2857
1953,3970	307,2868
1954,4320	307,2851
1955,4670	307,2867
1956,5020	307,2875
1957,5360	307,2883
1958,5700	307,2867
1959,6040	307,2875
1960,6380	307,2885
1961,6720	307,2883
1962,7060	307,2864
1963,7410	307,2880
1964,7740	307,2889
1965,8080	307,2870
1966,8420	307,2866
1967,8760	307,2888
1968,9100	307,2914
1969,9440	307,2895
1970,9790	307,2886
1972,0140	307,2867
1973,0490	307,2895
1974,0840	307,2899
1975,1180	307,2880
1976,1520	307,2899
1977,1860	307,2899
1978,2200	307,2899
1979,2540	307,2884
1980,2880	307,2923
1981,3210	307,2900
1982,3550	307,2889
1983,3890	307,2931
1984,4230	307,2918
1985,4570	307,2921
1986,4910	307,2922
1987,5250	307,2900
1988,5600	307,2886
1989,5950	307,2903
1990,6300	307,2910
1991,6650	307,2932
1992,6990	307,2897
1993,7330	307,2908
1994,7670	307,2904
1995,8010	307,2930
1996,8350	307,2907
1997,8690	307,2931
1998,9020	307,2942
1999,9360	307,2934
2000,9700	307,2935
2002,0040	307,2928
2003,0380	307,2938
2004,0720	307,2939
2005,1060	307,2934
2006,1410	307,2942
2007,1760	307,2933
2008,2110	307,2927
2009,2460	307,2949
2010,2800	307,2947
2011,3140	307,2928
2012,3480	307,2940
2013,3820	307,2940
2014,4160	307,2938
2015,4500	307,2947
2016,4830	307,2940
2017,5170	307,2967
2018,5510	307,2935
2019,5850	307,2929
2020,6190	307,2955
2021,6530	307,2953
2022,6880	307,2957
2023,7230	307,2965
2024,7580	307,2968
2025,7930	307,2972
2026,8280	307,2951
2027,8620	307,2963
2028,8960	307,2965
2029,9300	307,2958
2030,9640	307,2967
2031,9980	307,2963
2033,0320	307,2954
2034,0650	307,2953
2035,0990	307,2945
2036,1330	307,2953
2037,1670	307,2962
2038,2010	307,2990
2039,2350	307,2988
2040,2690	307,2982
